!FRM4SOC_CP
!POLDATA
# polarization sensitivity characterization results

# comments start with # (ignored by the processor)
# no empty lines between the parameter signatures in [] and the parameter values
# parameters are case insensitive
# parameters can be inserted in any order, except the first two signatures
# columns are tab- or space-delimited

[VERSION]
0.1

[CALDATE]
2023-04-06 09:06:28

[CALLAB]
Tartu Observatory

[USER]
Riho Vendt

[DEVICE]
CLASS_HYPEROCR_RADIANCE

[REFERENCE_TEMP]
20.0

# pixel no, wavelength (nm), semi-amplitude, uncertainty (k=2), angle of the max sensitivity plane (deg), uncertainty (deg, k=2)
# type(s): uint8, single, single, single, single, single
[CALDATA]
0	320.00	4.351E-002	2.754E-002	0.000	0.000
1	322.50	2.906E-002	4.131E-002	0.000	0.000
2	325.00	3.474E-002	3.005E-002	0.000	0.000
3	327.50	3.091E-002	3.191E-002	0.000	0.000
4	330.00	2.513E-002	2.816E-002	0.000	0.000
5	332.50	2.050E-002	2.433E-002	0.000	0.000
6	335.00	1.267E-002	1.191E-002	0.000	0.000
7	337.50	8.426E-003	2.863E-003	0.000	0.000
8	340.00	1.028E-002	3.697E-003	0.000	0.000
9	342.50	8.622E-003	6.059E-003	0.000	0.000
10	345.00	4.576E-003	4.481E-003	0.000	0.000
11	347.50	3.633E-003	3.411E-003	0.000	0.000
12	350.00	3.626E-003	5.073E-003	0.000	0.000
13	352.50	3.848E-003	8.049E-003	0.000	0.000
14	355.00	3.168E-003	4.522E-003	0.000	0.000
15	357.50	3.029E-003	2.816E-003	0.000	0.000
16	360.00	2.435E-003	3.181E-003	0.000	0.000
17	362.50	3.173E-003	5.456E-003	0.000	0.000
18	365.00	2.061E-003	1.770E-003	0.000	0.000
19	367.50	1.689E-003	1.457E-003	0.000	0.000
20	370.00	1.470E-003	1.230E-003	0.000	0.000
21	372.50	1.395E-003	1.731E-003	0.000	0.000
22	375.00	1.109E-003	1.001E-003	0.000	0.000
23	377.50	1.013E-003	1.654E-004	0.000	0.000
24	380.00	1.413E-003	1.470E-003	0.000	0.000
25	382.50	1.973E-003	3.731E-003	0.000	0.000
26	385.00	2.001E-003	2.266E-003	0.000	0.000
27	387.50	1.931E-003	2.148E-003	0.000	0.000
28	390.00	2.099E-003	2.663E-003	0.000	0.000
29	392.50	2.251E-003	3.588E-003	0.000	0.000
30	395.00	1.835E-003	1.886E-003	0.000	0.000
31	397.50	1.580E-003	2.001E-003	0.000	0.000
32	400.00	1.490E-003	2.519E-003	0.000	0.000
33	402.50	1.661E-003	2.730E-003	0.000	0.000
34	405.00	1.693E-003	2.369E-003	0.000	0.000
35	407.50	1.770E-003	2.449E-003	0.000	0.000
36	410.00	1.762E-003	2.571E-003	0.000	0.000
37	412.50	1.920E-003	2.695E-003	0.000	0.000
38	415.00	2.072E-003	2.977E-003	0.000	0.000
39	417.50	2.193E-003	2.629E-003	0.000	0.000
40	420.00	2.266E-003	2.757E-003	0.000	0.000
41	422.50	2.358E-003	3.025E-003	0.000	0.000
42	425.00	2.364E-003	2.966E-003	0.000	0.000
43	427.50	2.493E-003	2.789E-003	0.000	0.000
44	430.00	2.731E-003	3.140E-003	0.000	0.000
45	432.50	2.827E-003	3.485E-003	0.000	0.000
46	435.00	2.755E-003	3.536E-003	0.000	0.000
47	437.50	2.869E-003	3.759E-003	0.000	0.000
48	440.00	3.011E-003	4.085E-003	0.000	0.000
49	442.50	3.094E-003	4.350E-003	0.000	0.000
50	445.00	3.175E-003	4.209E-003	0.000	0.000
51	447.50	3.073E-003	4.032E-003	0.000	0.000
52	450.00	3.087E-003	4.141E-003	0.000	0.000
53	452.50	3.123E-003	4.226E-003	0.000	0.000
54	455.00	2.986E-003	4.212E-003	0.000	0.000
55	457.50	3.144E-003	4.244E-003	0.000	0.000
56	460.00	3.368E-003	4.483E-003	0.000	0.000
57	462.50	3.463E-003	4.632E-003	0.000	0.000
58	465.00	3.595E-003	4.967E-003	0.000	0.000
59	467.50	3.933E-003	5.334E-003	0.000	0.000
60	470.00	4.198E-003	5.765E-003	0.000	0.000
61	472.50	4.398E-003	6.291E-003	0.000	0.000
62	475.00	4.508E-003	7.001E-003	0.000	0.000
63	477.50	4.629E-003	7.593E-003	0.000	0.000
64	480.00	4.747E-003	7.798E-003	0.000	0.000
65	482.50	4.972E-003	7.764E-003	0.000	0.000
66	485.00	5.187E-003	7.837E-003	0.000	0.000
67	487.50	5.370E-003	7.839E-003	0.000	0.000
68	490.00	5.456E-003	7.964E-003	0.000	0.000
69	492.50	5.497E-003	8.158E-003	0.000	0.000
70	495.00	5.710E-003	8.155E-003	0.000	0.000
71	497.50	5.875E-003	8.479E-003	0.000	0.000
72	500.00	5.994E-003	8.724E-003	0.000	0.000
73	502.50	6.188E-003	8.696E-003	0.000	0.000
74	505.00	6.220E-003	9.036E-003	0.000	0.000
75	507.50	6.425E-003	9.091E-003	0.000	0.000
76	510.00	6.701E-003	9.039E-003	0.000	0.000
77	512.50	6.868E-003	9.233E-003	0.000	0.000
78	515.00	7.161E-003	9.282E-003	0.000	0.000
79	517.50	7.367E-003	9.856E-003	0.000	0.000
80	520.00	7.454E-003	1.060E-002	0.000	0.000
81	522.50	7.484E-003	1.114E-002	0.000	0.000
82	525.00	7.449E-003	1.128E-002	0.000	0.000
83	527.50	7.524E-003	1.115E-002	0.000	0.000
84	530.00	7.684E-003	1.109E-002	0.000	0.000
85	532.50	7.852E-003	1.122E-002	0.000	0.000
86	535.00	7.945E-003	1.116E-002	0.000	0.000
87	537.50	8.009E-003	1.117E-002	0.000	0.000
88	540.00	8.049E-003	1.120E-002	0.000	0.000
89	542.50	8.143E-003	1.127E-002	0.000	0.000
90	545.00	8.355E-003	1.156E-002	0.000	0.000
91	547.50	8.556E-003	1.173E-002	0.000	0.000
92	550.00	8.824E-003	1.194E-002	0.000	0.000
93	552.50	8.971E-003	1.233E-002	0.000	0.000
94	555.00	9.016E-003	1.256E-002	0.000	0.000
95	557.50	8.959E-003	1.247E-002	0.000	0.000
96	560.00	8.956E-003	1.247E-002	0.000	0.000
97	562.50	9.018E-003	1.253E-002	0.000	0.000
98	565.00	9.309E-003	1.207E-002	0.000	0.000
99	567.50	9.686E-003	1.170E-002	0.000	0.000
100	570.00	1.008E-002	1.167E-002	0.000	0.000
101	572.50	1.050E-002	1.176E-002	0.000	0.000
102	575.00	1.080E-002	1.230E-002	0.000	0.000
103	577.50	1.111E-002	1.277E-002	0.000	0.000
104	580.00	1.142E-002	1.322E-002	0.000	0.000
105	582.50	1.166E-002	1.392E-002	0.000	0.000
106	585.00	1.199E-002	1.439E-002	0.000	0.000
107	587.50	1.241E-002	1.476E-002	0.000	0.000
108	590.00	1.284E-002	1.506E-002	0.000	0.000
109	592.50	1.300E-002	1.551E-002	0.000	0.000
110	595.00	1.320E-002	1.571E-002	0.000	0.000
111	597.50	1.328E-002	1.593E-002	0.000	0.000
112	600.00	1.327E-002	1.634E-002	0.000	0.000
113	602.50	1.329E-002	1.676E-002	0.000	0.000
114	605.00	1.340E-002	1.707E-002	0.000	0.000
115	607.50	1.354E-002	1.747E-002	0.000	0.000
116	610.00	1.380E-002	1.791E-002	0.000	0.000
117	612.50	1.407E-002	1.815E-002	0.000	0.000
118	615.00	1.421E-002	1.849E-002	0.000	0.000
119	617.50	1.443E-002	1.880E-002	0.000	0.000
120	620.00	1.459E-002	1.858E-002	0.000	0.000
121	622.50	1.463E-002	1.840E-002	0.000	0.000
122	625.00	1.446E-002	1.830E-002	0.000	0.000
123	627.50	1.443E-002	1.824E-002	0.000	0.000
124	630.00	1.437E-002	1.771E-002	0.000	0.000
125	632.50	1.448E-002	1.740E-002	0.000	0.000
126	635.00	1.463E-002	1.764E-002	0.000	0.000
127	637.50	1.466E-002	1.749E-002	0.000	0.000
128	640.00	1.484E-002	1.734E-002	0.000	0.000
129	642.50	1.502E-002	1.717E-002	0.000	0.000
130	645.00	1.510E-002	1.714E-002	0.000	0.000
131	647.50	1.513E-002	1.720E-002	0.000	0.000
132	650.00	1.507E-002	1.706E-002	0.000	0.000
133	652.50	1.529E-002	1.658E-002	0.000	0.000
134	655.00	1.576E-002	1.605E-002	0.000	0.000
135	657.50	1.636E-002	1.587E-002	0.000	0.000
136	660.00	1.702E-002	1.585E-002	0.000	0.000
137	662.50	1.785E-002	1.580E-002	0.000	0.000
138	665.00	1.876E-002	1.594E-002	0.000	0.000
139	667.50	1.957E-002	1.654E-002	0.000	0.000
140	670.00	2.017E-002	1.722E-002	0.000	0.000
141	672.50	2.056E-002	1.802E-002	0.000	0.000
142	675.00	2.074E-002	1.901E-002	0.000	0.000
143	677.50	2.077E-002	2.008E-002	0.000	0.000
144	680.00	2.071E-002	2.084E-002	0.000	0.000
145	682.50	2.066E-002	2.155E-002	0.000	0.000
146	685.00	2.066E-002	2.245E-002	0.000	0.000
147	687.50	2.060E-002	2.324E-002	0.000	0.000
148	690.00	2.062E-002	2.390E-002	0.000	0.000
149	692.50	2.057E-002	2.440E-002	0.000	0.000
150	695.00	2.053E-002	2.444E-002	0.000	0.000
151	697.50	2.041E-002	2.425E-002	0.000	0.000
152	700.00	2.030E-002	2.411E-002	0.000	0.000
153	702.50	2.026E-002	2.387E-002	0.000	0.000
154	705.00	2.019E-002	2.353E-002	0.000	0.000
155	707.50	2.012E-002	2.319E-002	0.000	0.000
156	710.00	2.016E-002	2.285E-002	0.000	0.000
157	712.50	2.028E-002	2.250E-002	0.000	0.000
158	715.00	2.025E-002	2.239E-002	0.000	0.000
159	717.50	2.033E-002	2.236E-002	0.000	0.000
160	720.00	2.056E-002	2.220E-002	0.000	0.000
161	722.50	2.082E-002	2.196E-002	0.000	0.000
162	725.00	2.103E-002	2.174E-002	0.000	0.000
163	727.50	2.128E-002	2.187E-002	0.000	0.000
164	730.00	2.138E-002	2.192E-002	0.000	0.000
165	732.50	2.164E-002	2.157E-002	0.000	0.000
166	735.00	2.197E-002	2.178E-002	0.000	0.000
167	737.50	2.216E-002	2.204E-002	0.000	0.000
168	740.00	2.221E-002	2.227E-002	0.000	0.000
169	742.50	2.258E-002	2.212E-002	0.000	0.000
170	745.00	2.289E-002	2.223E-002	0.000	0.000
171	747.50	2.311E-002	2.225E-002	0.000	0.000
172	750.00	2.329E-002	2.207E-002	0.000	0.000
173	752.50	2.362E-002	2.185E-002	0.000	0.000
174	755.00	2.383E-002	2.202E-002	0.000	0.000
175	757.50	2.417E-002	2.223E-002	0.000	0.000
176	760.00	2.461E-002	2.214E-002	0.000	0.000
177	762.50	2.502E-002	2.185E-002	0.000	0.000
178	765.00	2.509E-002	2.211E-002	0.000	0.000
179	767.50	2.529E-002	2.196E-002	0.000	0.000
180	770.00	2.587E-002	2.152E-002	0.000	0.000
181	772.50	2.676E-002	2.110E-002	0.000	0.000
182	775.00	2.760E-002	2.094E-002	0.000	0.000
183	777.50	2.884E-002	2.115E-002	0.000	0.000
184	780.00	3.022E-002	2.164E-002	0.000	0.000
185	782.50	3.163E-002	2.240E-002	0.000	0.000
186	785.00	3.305E-002	2.345E-002	0.000	0.000
187	787.50	3.449E-002	2.416E-002	0.000	0.000
188	790.00	3.578E-002	2.484E-002	0.000	0.000
189	792.50	3.670E-002	2.599E-002	0.000	0.000
190	795.00	3.736E-002	2.744E-002	0.000	0.000
191	797.50	3.778E-002	2.906E-002	0.000	0.000
192	800.00	3.810E-002	3.090E-002	0.000	0.000
193	802.50	3.816E-002	3.274E-002	0.000	0.000
194	805.00	3.790E-002	3.451E-002	0.000	0.000
195	807.50	3.759E-002	3.579E-002	0.000	0.000
196	810.00	3.732E-002	3.663E-002	0.000	0.000
197	812.50	3.702E-002	3.695E-002	0.000	0.000
198	815.00	3.660E-002	3.681E-002	0.000	0.000
199	817.50	3.606E-002	3.652E-002	0.000	0.000
200	820.00	3.567E-002	3.606E-002	0.000	0.000
201	822.50	3.539E-002	3.567E-002	0.000	0.000
202	825.00	3.498E-002	3.533E-002	0.000	0.000
203	827.50	3.480E-002	3.484E-002	0.000	0.000
204	830.00	3.473E-002	3.423E-002	0.000	0.000
205	832.50	3.458E-002	3.370E-002	0.000	0.000
206	835.00	3.417E-002	3.333E-002	0.000	0.000
207	837.50	3.407E-002	3.271E-002	0.000	0.000
208	840.00	3.402E-002	3.241E-002	0.000	0.000
209	842.50	3.389E-002	3.226E-002	0.000	0.000
210	845.00	3.401E-002	3.206E-002	0.000	0.000
211	847.50	3.409E-002	3.165E-002	0.000	0.000
212	850.00	3.410E-002	3.139E-002	0.000	0.000
213	852.50	3.430E-002	3.142E-002	0.000	0.000
214	855.00	3.442E-002	3.098E-002	0.000	0.000
215	857.50	3.449E-002	3.101E-002	0.000	0.000
216	860.00	3.461E-002	3.153E-002	0.000	0.000
217	862.50	3.461E-002	3.140E-002	0.000	0.000
218	865.00	3.472E-002	3.109E-002	0.000	0.000
219	867.50	3.485E-002	3.104E-002	0.000	0.000
220	870.00	3.508E-002	3.139E-002	0.000	0.000
221	872.50	3.530E-002	3.172E-002	0.000	0.000
222	875.00	3.553E-002	3.152E-002	0.000	0.000
223	877.50	3.561E-002	3.138E-002	0.000	0.000
224	880.00	3.579E-002	3.114E-002	0.000	0.000
225	882.50	3.593E-002	3.076E-002	0.000	0.000
226	885.00	3.612E-002	3.098E-002	0.000	0.000
227	887.50	3.617E-002	3.157E-002	0.000	0.000
228	890.00	3.647E-002	3.119E-002	0.000	0.000
229	892.50	3.681E-002	3.043E-002	0.000	0.000
230	895.00	3.712E-002	3.079E-002	0.000	0.000
231	897.50	3.733E-002	3.107E-002	0.000	0.000
232	900.00	3.744E-002	3.150E-002	0.000	0.000
233	902.50	3.745E-002	3.145E-002	0.000	0.000
234	905.00	3.086E-002	3.442E-002	0.000	0.000
235	907.50	3.106E-002	3.458E-002	0.000	0.000
236	910.00	3.125E-002	3.457E-002	0.000	0.000
237	912.50	3.148E-002	3.447E-002	0.000	0.000
238	915.00	3.159E-002	3.462E-002	0.000	0.000
239	917.50	3.185E-002	3.427E-002	0.000	0.000
240	920.00	3.255E-002	3.408E-002	0.000	0.000
241	922.50	3.374E-002	3.451E-002	0.000	0.000
242	925.00	3.503E-002	3.398E-002	0.000	0.000
243	927.50	3.600E-002	3.353E-002	0.000	0.000
244	930.00	3.710E-002	3.331E-002	0.000	0.000
245	932.50	3.831E-002	3.325E-002	0.000	0.000
246	935.00	3.949E-002	3.266E-002	0.000	0.000
247	937.50	4.062E-002	3.231E-002	0.000	0.000
248	940.00	4.125E-002	3.212E-002	0.000	0.000
249	942.50	4.149E-002	3.224E-002	0.000	0.000
250	945.00	4.188E-002	3.400E-002	0.000	0.000
251	947.50	4.209E-002	3.632E-002	0.000	0.000
252	950.00	4.217E-002	3.895E-002	0.000	0.000
253	952.50	4.230E-002	4.207E-002	0.000	0.000
254	955.00	4.262E-002	4.592E-002	0.000	0.000
255	957.50	4.250E-002	4.757E-002	0.000	0.000
[END_OF_CALDATA]
