!FRM4SOC_CP
!POLDATA
# polarization sensitivity characterization results

# comments start with # (ignored by the processor)
# no empty lines between the parameter signatures in [] and the parameter values
# parameters are case insensitive
# parameters can be inserted in any order, except the first two signatures
# columns are tab- or space-delimited

[VERSION]
0.1

[CALDATE]
2023-04-06 09:06:28

[CALLAB]
Tartu Observatory

[USER]
Riho Vendt

[DEVICE]
CLASS_RAMSES_RADIANCE

[REFERENCE_TEMP]
20.0

# pixel no, wavelength (nm), semi-amplitude, uncertainty (k=2), angle of the max sensitivity plane (deg), uncertainty (deg, k=2)
# type(s): uint8, single, single, single, single, single
[CALDATA]
0	320.00	6.105E-002	3.345E-001	0.000	0.000
1	322.50	1.513E-002	5.708E-002	0.000	0.000
2	325.00	9.376E-003	2.001E-002	0.000	0.000
3	327.50	7.677E-003	1.839E-002	0.000	0.000
4	330.00	5.052E-003	1.116E-002	0.000	0.000
5	332.50	3.392E-003	4.019E-003	0.000	0.000
6	335.00	3.644E-003	4.586E-003	0.000	0.000
7	337.50	2.871E-003	5.382E-003	0.000	0.000
8	340.00	2.134E-003	4.272E-003	0.000	0.000
9	342.50	1.606E-003	2.261E-003	0.000	0.000
10	345.00	1.341E-003	1.869E-003	0.000	0.000
11	347.50	1.065E-003	9.104E-004	0.000	0.000
12	350.00	9.318E-004	9.176E-004	0.000	0.000
13	352.50	8.469E-004	7.554E-004	0.000	0.000
14	355.00	6.740E-004	6.095E-004	0.000	0.000
15	357.50	6.361E-004	1.075E-003	0.000	0.000
16	360.00	5.352E-004	8.771E-004	0.000	0.000
17	362.50	4.195E-004	5.990E-004	0.000	0.000
18	365.00	3.660E-004	5.213E-004	0.000	0.000
19	367.50	4.498E-004	4.765E-004	0.000	0.000
20	370.00	4.560E-004	4.499E-004	0.000	0.000
21	372.50	4.118E-004	3.729E-004	0.000	0.000
22	375.00	3.677E-004	3.965E-004	0.000	0.000
23	377.50	3.553E-004	2.907E-004	0.000	0.000
24	380.00	3.860E-004	3.981E-004	0.000	0.000
25	382.50	4.001E-004	4.131E-004	0.000	0.000
26	385.00	3.251E-004	4.206E-004	0.000	0.000
27	387.50	3.287E-004	3.203E-004	0.000	0.000
28	390.00	3.790E-004	3.672E-004	0.000	0.000
29	392.50	4.106E-004	4.513E-004	0.000	0.000
30	395.00	4.911E-004	5.006E-004	0.000	0.000
31	397.50	4.951E-004	4.236E-004	0.000	0.000
32	400.00	4.880E-004	4.510E-004	0.000	0.000
33	402.50	4.928E-004	5.205E-004	0.000	0.000
34	405.00	5.012E-004	4.877E-004	0.000	0.000
35	407.50	5.121E-004	4.916E-004	0.000	0.000
36	410.00	5.176E-004	4.500E-004	0.000	0.000
37	412.50	5.200E-004	4.033E-004	0.000	0.000
38	415.00	5.335E-004	4.507E-004	0.000	0.000
39	417.50	5.814E-004	4.970E-004	0.000	0.000
40	420.00	6.196E-004	5.671E-004	0.000	0.000
41	422.50	6.379E-004	6.320E-004	0.000	0.000
42	425.00	6.638E-004	6.285E-004	0.000	0.000
43	427.50	6.997E-004	7.441E-004	0.000	0.000
44	430.00	7.405E-004	8.254E-004	0.000	0.000
45	432.50	7.500E-004	8.868E-004	0.000	0.000
46	435.00	7.680E-004	9.113E-004	0.000	0.000
47	437.50	7.615E-004	8.953E-004	0.000	0.000
48	440.00	7.563E-004	9.043E-004	0.000	0.000
49	442.50	7.654E-004	9.496E-004	0.000	0.000
50	445.00	8.215E-004	1.061E-003	0.000	0.000
51	447.50	8.321E-004	1.022E-003	0.000	0.000
52	450.00	8.488E-004	1.034E-003	0.000	0.000
53	452.50	9.014E-004	1.104E-003	0.000	0.000
54	455.00	9.408E-004	1.259E-003	0.000	0.000
55	457.50	9.980E-004	1.360E-003	0.000	0.000
56	460.00	1.060E-003	1.460E-003	0.000	0.000
57	462.50	1.134E-003	1.557E-003	0.000	0.000
58	465.00	1.204E-003	1.710E-003	0.000	0.000
59	467.50	1.253E-003	1.792E-003	0.000	0.000
60	470.00	1.285E-003	1.832E-003	0.000	0.000
61	472.50	1.283E-003	1.851E-003	0.000	0.000
62	475.00	1.316E-003	1.838E-003	0.000	0.000
63	477.50	1.339E-003	1.831E-003	0.000	0.000
64	480.00	1.378E-003	1.851E-003	0.000	0.000
65	482.50	1.434E-003	1.894E-003	0.000	0.000
66	485.00	1.468E-003	1.909E-003	0.000	0.000
67	487.50	1.510E-003	1.961E-003	0.000	0.000
68	490.00	1.555E-003	1.993E-003	0.000	0.000
69	492.50	1.597E-003	1.989E-003	0.000	0.000
70	495.00	1.607E-003	1.949E-003	0.000	0.000
71	497.50	1.629E-003	1.966E-003	0.000	0.000
72	500.00	1.655E-003	1.985E-003	0.000	0.000
73	502.50	1.690E-003	1.985E-003	0.000	0.000
74	505.00	1.735E-003	1.998E-003	0.000	0.000
75	507.50	1.801E-003	2.058E-003	0.000	0.000
76	510.00	1.880E-003	2.136E-003	0.000	0.000
77	512.50	1.963E-003	2.229E-003	0.000	0.000
78	515.00	2.038E-003	2.334E-003	0.000	0.000
79	517.50	2.074E-003	2.382E-003	0.000	0.000
80	520.00	2.090E-003	2.366E-003	0.000	0.000
81	522.50	2.087E-003	2.305E-003	0.000	0.000
82	525.00	2.087E-003	2.289E-003	0.000	0.000
83	527.50	2.107E-003	2.264E-003	0.000	0.000
84	530.00	2.138E-003	2.269E-003	0.000	0.000
85	532.50	2.182E-003	2.314E-003	0.000	0.000
86	535.00	2.262E-003	2.354E-003	0.000	0.000
87	537.50	2.340E-003	2.391E-003	0.000	0.000
88	540.00	2.391E-003	2.404E-003	0.000	0.000
89	542.50	2.399E-003	2.377E-003	0.000	0.000
90	545.00	2.411E-003	2.357E-003	0.000	0.000
91	547.50	2.427E-003	2.312E-003	0.000	0.000
92	550.00	2.434E-003	2.294E-003	0.000	0.000
93	552.50	2.445E-003	2.318E-003	0.000	0.000
94	555.00	2.449E-003	2.326E-003	0.000	0.000
95	557.50	2.489E-003	2.301E-003	0.000	0.000
96	560.00	2.536E-003	2.283E-003	0.000	0.000
97	562.50	2.581E-003	2.311E-003	0.000	0.000
98	565.00	2.648E-003	2.316E-003	0.000	0.000
99	567.50	2.758E-003	2.390E-003	0.000	0.000
100	570.00	2.917E-003	2.525E-003	0.000	0.000
101	572.50	3.128E-003	2.722E-003	0.000	0.000
102	575.00	3.354E-003	2.948E-003	0.000	0.000
103	577.50	3.548E-003	3.135E-003	0.000	0.000
104	580.00	3.710E-003	3.304E-003	0.000	0.000
105	582.50	3.813E-003	3.443E-003	0.000	0.000
106	585.00	3.870E-003	3.530E-003	0.000	0.000
107	587.50	3.886E-003	3.590E-003	0.000	0.000
108	590.00	3.903E-003	3.637E-003	0.000	0.000
109	592.50	3.948E-003	3.714E-003	0.000	0.000
110	595.00	3.932E-003	3.644E-003	0.000	0.000
111	597.50	3.952E-003	3.567E-003	0.000	0.000
112	600.00	3.961E-003	3.466E-003	0.000	0.000
113	602.50	3.913E-003	3.238E-003	0.000	0.000
114	605.00	3.854E-003	3.095E-003	0.000	0.000
115	607.50	3.817E-003	2.935E-003	0.000	0.000
116	610.00	3.790E-003	2.797E-003	0.000	0.000
117	612.50	3.793E-003	2.799E-003	0.000	0.000
118	615.00	3.809E-003	2.844E-003	0.000	0.000
119	617.50	3.842E-003	2.892E-003	0.000	0.000
120	620.00	3.891E-003	2.922E-003	0.000	0.000
121	622.50	3.950E-003	2.959E-003	0.000	0.000
122	625.00	4.056E-003	3.044E-003	0.000	0.000
123	627.50	4.132E-003	3.179E-003	0.000	0.000
124	630.00	4.198E-003	3.327E-003	0.000	0.000
125	632.50	4.248E-003	3.428E-003	0.000	0.000
126	635.00	4.255E-003	3.493E-003	0.000	0.000
127	637.50	4.256E-003	3.556E-003	0.000	0.000
128	640.00	4.244E-003	3.602E-003	0.000	0.000
129	642.50	4.189E-003	3.455E-003	0.000	0.000
130	645.00	4.191E-003	3.265E-003	0.000	0.000
131	647.50	4.215E-003	3.088E-003	0.000	0.000
132	650.00	4.270E-003	2.952E-003	0.000	0.000
133	652.50	4.382E-003	2.931E-003	0.000	0.000
134	655.00	4.592E-003	3.043E-003	0.000	0.000
135	657.50	4.855E-003	3.285E-003	0.000	0.000
136	660.00	5.184E-003	3.632E-003	0.000	0.000
137	662.50	5.548E-003	3.982E-003	0.000	0.000
138	665.00	5.924E-003	4.351E-003	0.000	0.000
139	667.50	6.294E-003	4.707E-003	0.000	0.000
140	670.00	6.629E-003	5.051E-003	0.000	0.000
141	672.50	6.897E-003	5.289E-003	0.000	0.000
142	675.00	7.011E-003	5.373E-003	0.000	0.000
143	677.50	7.041E-003	5.329E-003	0.000	0.000
144	680.00	6.996E-003	5.188E-003	0.000	0.000
145	682.50	6.865E-003	4.980E-003	0.000	0.000
146	685.00	6.702E-003	4.834E-003	0.000	0.000
147	687.50	6.569E-003	4.670E-003	0.000	0.000
148	690.00	6.444E-003	4.495E-003	0.000	0.000
149	692.50	6.350E-003	4.398E-003	0.000	0.000
150	695.00	6.287E-003	4.308E-003	0.000	0.000
151	697.50	6.263E-003	4.244E-003	0.000	0.000
152	700.00	6.269E-003	4.215E-003	0.000	0.000
153	702.50	6.286E-003	4.188E-003	0.000	0.000
154	705.00	6.329E-003	4.188E-003	0.000	0.000
155	707.50	6.401E-003	4.212E-003	0.000	0.000
156	710.00	6.479E-003	4.270E-003	0.000	0.000
157	712.50	6.540E-003	4.259E-003	0.000	0.000
158	715.00	6.585E-003	4.254E-003	0.000	0.000
159	717.50	6.643E-003	4.248E-003	0.000	0.000
160	720.00	6.714E-003	4.244E-003	0.000	0.000
161	722.50	6.788E-003	4.267E-003	0.000	0.000
162	725.00	6.866E-003	4.277E-003	0.000	0.000
163	727.50	6.953E-003	4.283E-003	0.000	0.000
164	730.00	7.033E-003	4.287E-003	0.000	0.000
165	732.50	7.143E-003	4.326E-003	0.000	0.000
166	735.00	7.245E-003	4.361E-003	0.000	0.000
167	737.50	7.364E-003	4.380E-003	0.000	0.000
168	740.00	7.490E-003	4.378E-003	0.000	0.000
169	742.50	7.593E-003	4.464E-003	0.000	0.000
170	745.00	7.718E-003	4.525E-003	0.000	0.000
171	747.50	7.819E-003	4.557E-003	0.000	0.000
172	750.00	7.901E-003	4.586E-003	0.000	0.000
173	752.50	7.993E-003	4.623E-003	0.000	0.000
174	755.00	8.076E-003	4.610E-003	0.000	0.000
175	757.50	8.147E-003	4.595E-003	0.000	0.000
176	760.00	8.228E-003	4.584E-003	0.000	0.000
177	762.50	8.296E-003	4.533E-003	0.000	0.000
178	765.00	8.389E-003	4.573E-003	0.000	0.000
179	767.50	8.535E-003	4.665E-003	0.000	0.000
180	770.00	8.749E-003	4.761E-003	0.000	0.000
181	772.50	9.072E-003	4.959E-003	0.000	0.000
182	775.00	9.584E-003	5.237E-003	0.000	0.000
183	777.50	1.023E-002	5.601E-003	0.000	0.000
184	780.00	1.092E-002	5.980E-003	0.000	0.000
185	782.50	1.164E-002	6.310E-003	0.000	0.000
186	785.00	1.231E-002	6.629E-003	0.000	0.000
187	787.50	1.282E-002	6.920E-003	0.000	0.000
188	790.00	1.326E-002	7.144E-003	0.000	0.000
189	792.50	1.358E-002	7.301E-003	0.000	0.000
190	795.00	1.376E-002	7.413E-003	0.000	0.000
191	797.50	1.382E-002	7.455E-003	0.000	0.000
192	800.00	1.376E-002	7.463E-003	0.000	0.000
193	802.50	1.358E-002	7.426E-003	0.000	0.000
194	805.00	1.337E-002	7.296E-003	0.000	0.000
195	807.50	1.319E-002	7.126E-003	0.000	0.000
196	810.00	1.299E-002	6.932E-003	0.000	0.000
197	812.50	1.280E-002	6.793E-003	0.000	0.000
198	815.00	1.262E-002	6.733E-003	0.000	0.000
199	817.50	1.248E-002	6.661E-003	0.000	0.000
200	820.00	1.240E-002	6.625E-003	0.000	0.000
201	822.50	1.233E-002	6.555E-003	0.000	0.000
202	825.00	1.223E-002	6.495E-003	0.000	0.000
203	827.50	1.222E-002	6.496E-003	0.000	0.000
204	830.00	1.222E-002	6.571E-003	0.000	0.000
205	832.50	1.216E-002	6.466E-003	0.000	0.000
206	835.00	1.216E-002	6.361E-003	0.000	0.000
207	837.50	1.217E-002	6.349E-003	0.000	0.000
208	840.00	1.220E-002	6.448E-003	0.000	0.000
209	842.50	1.221E-002	6.256E-003	0.000	0.000
210	845.00	1.226E-002	6.238E-003	0.000	0.000
211	847.50	1.232E-002	6.247E-003	0.000	0.000
212	850.00	1.238E-002	6.205E-003	0.000	0.000
213	852.50	1.245E-002	6.177E-003	0.000	0.000
214	855.00	1.252E-002	6.274E-003	0.000	0.000
215	857.50	1.257E-002	6.372E-003	0.000	0.000
216	860.00	1.264E-002	6.374E-003	0.000	0.000
217	862.50	1.276E-002	6.412E-003	0.000	0.000
218	865.00	1.288E-002	6.353E-003	0.000	0.000
219	867.50	1.294E-002	6.246E-003	0.000	0.000
220	870.00	1.299E-002	6.192E-003	0.000	0.000
221	872.50	1.311E-002	6.375E-003	0.000	0.000
222	875.00	1.321E-002	6.391E-003	0.000	0.000
223	877.50	1.332E-002	6.402E-003	0.000	0.000
224	880.00	1.350E-002	6.494E-003	0.000	0.000
225	882.50	1.361E-002	6.420E-003	0.000	0.000
226	885.00	1.372E-002	6.333E-003	0.000	0.000
227	887.50	1.377E-002	6.376E-003	0.000	0.000
228	890.00	1.389E-002	6.405E-003	0.000	0.000
229	892.50	1.395E-002	6.288E-003	0.000	0.000
230	895.00	1.415E-002	6.224E-003	0.000	0.000
231	897.50	1.428E-002	6.349E-003	0.000	0.000
232	900.00	1.441E-002	6.531E-003	0.000	0.000
233	902.50	1.453E-002	6.740E-003	0.000	0.000
234	905.00	1.461E-002	6.741E-003	0.000	0.000
235	907.50	1.469E-002	6.812E-003	0.000	0.000
236	910.00	1.487E-002	6.847E-003	0.000	0.000
237	912.50	1.505E-002	6.891E-003	0.000	0.000
238	915.00	1.514E-002	6.971E-003	0.000	0.000
239	917.50	1.527E-002	7.197E-003	0.000	0.000
240	920.00	1.558E-002	7.459E-003	0.000	0.000
241	922.50	1.598E-002	7.739E-003	0.000	0.000
242	925.00	1.670E-002	8.194E-003	0.000	0.000
243	927.50	1.758E-002	8.743E-003	0.000	0.000
244	930.00	1.869E-002	9.209E-003	0.000	0.000
245	932.50	1.984E-002	9.818E-003	0.000	0.000
246	935.00	2.084E-002	1.013E-002	0.000	0.000
247	937.50	2.172E-002	1.055E-002	0.000	0.000
248	940.00	2.225E-002	1.067E-002	0.000	0.000
249	942.50	2.243E-002	1.041E-002	0.000	0.000
250	945.00	2.237E-002	1.030E-002	0.000	0.000
251	947.50	2.210E-002	1.003E-002	0.000	0.000
252	950.00	2.171E-002	9.863E-003	0.000	0.000
253	952.50	2.119E-002	9.823E-003	0.000	0.000
254	955.00	2.083E-002	1.002E-002	0.000	0.000
255	957.50	2.045E-002	9.808E-003	0.000	0.000
[END_OF_CALDATA]
